ENVI
samples = 696
lines = 783
bands = 520
header offset = 0
file type = ENVI Standard
data type = 12
interleave = bil
sensor type = Unknown
wavelength units = nm
binning = {1,1}
wavelength = {
387.40,
388.50,
389.60,
390.80,
391.90,
393.00,
394.20,
395.30,
396.40,
397.60,
398.70,
399.80,
401.00,
402.10,
403.30,
404.40,
405.50,
406.70,
407.80,
409.00,
410.10,
411.20,
412.40,
413.50,
414.70,
415.80,
417.00,
418.10,
419.20,
420.40,
421.50,
422.70,
423.80,
425.00,
426.10,
427.30,
428.40,
429.60,
430.70,
431.90,
433.00,
434.10,
435.30,
436.40,
437.60,
438.80,
439.90,
441.10,
442.20,
443.40,
444.50,
445.70,
446.80,
448.00,
449.10,
450.30,
451.40,
452.60,
453.80,
454.90,
456.10,
457.20,
458.40,
459.50,
460.70,
461.90,
463.00,
464.20,
465.30,
466.50,
467.70,
468.80,
470.00,
471.10,
472.30,
473.50,
474.60,
475.80,
477.00,
478.10,
479.30,
480.50,
481.60,
482.80,
484.00,
485.10,
486.30,
487.50,
488.60,
489.80,
491.00,
492.10,
493.30,
494.50,
495.70,
496.80,
498.00,
499.20,
500.30,
501.50,
502.70,
503.90,
505.00,
506.20,
507.40,
508.60,
509.70,
510.90,
512.10,
513.30,
514.40,
515.60,
516.80,
518.00,
519.20,
520.30,
521.50,
522.70,
523.90,
525.10,
526.30,
527.40,
528.60,
529.80,
531.00,
532.20,
533.40,
534.50,
535.70,
536.90,
538.10,
539.30,
540.50,
541.70,
542.80,
544.00,
545.20,
546.40,
547.60,
548.80,
550.00,
551.20,
552.40,
553.60,
554.70,
555.90,
557.10,
558.30,
559.50,
560.70,
561.90,
563.10,
564.30,
565.50,
566.70,
567.90,
569.10,
570.30,
571.50,
572.70,
573.90,
575.10,
576.30,
577.50,
578.70,
579.90,
581.10,
582.30,
583.50,
584.70,
585.90,
587.10,
588.30,
589.50,
590.70,
591.90,
593.10,
594.30,
595.50,
596.70,
597.90,
599.10,
600.30,
601.60,
602.80,
604.00,
605.20,
606.40,
607.60,
608.80,
610.00,
611.20,
612.40,
613.70,
614.90,
616.10,
617.30,
618.50,
619.70,
620.90,
622.20,
623.40,
624.60,
625.80,
627.00,
628.20,
629.40,
630.70,
631.90,
633.10,
634.30,
635.50,
636.80,
638.00,
639.20,
640.40,
641.60,
642.90,
644.10,
645.30,
646.50,
647.80,
649.00,
650.20,
651.40,
652.70,
653.90,
655.10,
656.30,
657.60,
658.80,
660.00,
661.30,
662.50,
663.70,
664.90,
666.20,
667.40,
668.60,
669.90,
671.10,
672.30,
673.60,
674.80,
676.00,
677.30,
678.50,
679.70,
681.00,
682.20,
683.40,
684.70,
685.90,
687.10,
688.40,
689.60,
690.90,
692.10,
693.30,
694.60,
695.80,
697.10,
698.30,
699.50,
700.80,
702.00,
703.30,
704.50,
705.70,
707.00,
708.20,
709.50,
710.70,
712.00,
713.20,
714.50,
715.70,
717.00,
718.20,
719.40,
720.70,
721.90,
723.20,
724.40,
725.70,
726.90,
728.20,
729.40,
730.70,
731.90,
733.20,
734.50,
735.70,
737.00,
738.20,
739.50,
740.70,
742.00,
743.20,
744.50,
745.70,
747.00,
748.30,
749.50,
750.80,
752.00,
753.30,
754.60,
755.80,
757.10,
758.30,
759.60,
760.90,
762.10,
763.40,
764.60,
765.90,
767.20,
768.40,
769.70,
771.00,
772.20,
773.50,
774.80,
776.00,
777.30,
778.60,
779.80,
781.10,
782.40,
783.60,
784.90,
786.20,
787.40,
788.70,
790.00,
791.30,
792.50,
793.80,
795.10,
796.30,
797.60,
798.90,
800.20,
801.40,
802.70,
804.00,
805.30,
806.50,
807.80,
809.10,
810.40,
811.70,
812.90,
814.20,
815.50,
816.80,
818.00,
819.30,
820.60,
821.90,
823.20,
824.50,
825.70,
827.00,
828.30,
829.60,
830.90,
832.20,
833.40,
834.70,
836.00,
837.30,
838.60,
839.90,
841.20,
842.40,
843.70,
845.00,
846.30,
847.60,
848.90,
850.20,
851.50,
852.80,
854.10,
855.30,
856.60,
857.90,
859.20,
860.50,
861.80,
863.10,
864.40,
865.70,
867.00,
868.30,
869.60,
870.90,
872.20,
873.50,
874.80,
876.10,
877.40,
878.70,
880.00,
881.30,
882.60,
883.90,
885.20,
886.50,
887.80,
889.10,
890.40,
891.70,
893.00,
894.30,
895.60,
896.90,
898.20,
899.50,
900.80,
902.10,
903.40,
904.80,
906.10,
907.40,
908.70,
910.00,
911.30,
912.60,
913.90,
915.20,
916.50,
917.90,
919.20,
920.50,
921.80,
923.10,
924.40,
925.70,
927.00,
928.40,
929.70,
931.00,
932.30,
933.60,
934.90,
936.30,
937.60,
938.90,
940.20,
941.50,
942.90,
944.20,
945.50,
946.80,
948.10,
949.50,
950.80,
952.10,
953.40,
954.80,
956.10,
957.40,
958.70,
960.10,
961.40,
962.70,
964.00,
965.40,
966.70,
968.00,
969.30,
970.70,
972.00,
973.30,
974.70,
976.00,
977.30,
978.60,
980.00,
981.30,
982.60,
984.00,
985.30,
986.60,
988.00,
989.30,
990.60,
992.00,
993.30,
994.70,
996.00,
997.30,
998.70,
1000.00,
1001.30,
1002.70,
1004.00,
1005.40,
1006.70,
1008.00,
1009.40,
1010.70,
1012.10,
1013.40,
1014.70,
1016.10,
1017.40,
1018.80,
1020.10,
1021.50,
1022.80,
1024.10,
1025.50,
1026.80,
1028.20,
1029.50,
1030.90
}